#
#
#
#
#POINTS:3882  ! Number of points - Wavelength in microns[um]
    0.005636  1.317000e-19
    0.005687  1.207000e-19
    0.005740  1.317000e-19
    0.005794  1.317000e-19
    0.005848  1.317000e-19
    0.005904  1.317000e-19
    0.005961  1.317000e-19
    0.006019  1.317000e-19
    0.006078  1.317000e-19
    0.006138  1.427000e-19
    0.006199  1.427000e-19
    0.006262  1.427000e-19
    0.006326  1.427000e-19
    0.006391  1.427000e-19
    0.006458  1.427000e-19
    0.006525  1.537000e-19
    0.006595  1.537000e-19
    0.006666  1.537000e-19
    0.006738  1.537000e-19
    0.006812  1.537000e-19
    0.006888  1.646000e-19
    0.006965  1.646000e-19
    0.007045  1.646000e-19
    0.007126  1.646000e-19
    0.007208  1.646000e-19
    0.007293  1.756000e-19
    0.007380  1.756000e-19
    0.007469  1.756000e-19
    0.007560  1.866000e-19
    0.007653  1.866000e-19
    0.007749  1.976000e-19
    0.007847  1.976000e-19
    0.007948  2.085000e-19
    0.008051  2.085000e-19
    0.008157  2.085000e-19
    0.008266  2.195000e-19
    0.008377  2.195000e-19
    0.008492  2.195000e-19
    0.008610  2.305000e-19
    0.008731  2.415000e-19
    0.008856  2.415000e-19
    0.008984  2.524000e-19
    0.009116  2.524000e-19
    0.009253  2.744000e-19
    0.009393  2.854000e-19
    0.009537  2.854000e-19
    0.009686  2.963000e-19
    0.009840  3.073000e-19
    0.009999  3.293000e-19
    0.010160  3.293000e-19
    0.010330  3.402000e-19
    0.010510  3.622000e-19
    0.010690  3.732000e-19
    0.010880  3.841000e-19
    0.011070  3.951000e-19
    0.011270  4.171000e-19
    0.011480  4.390000e-19
    0.011700  4.610000e-19
    0.011920  4.719000e-19
    0.012160  5.049000e-19
    0.012400  5.158000e-19
    0.012700  5.488000e-19
    0.012900  5.707000e-19
    0.013200  6.146000e-19
    0.013500  6.365000e-19
    0.013800  6.805000e-19
    0.014100  7.244000e-19
    0.014400  7.682000e-19
    0.014800  8.122000e-19
    0.015100  8.890000e-19
    0.015500  9.329000e-19
    0.015700  9.768000e-19
    0.015900  1.010000e-18
    0.016100  1.032000e-18
    0.016300  1.076000e-18
    0.016500  1.108000e-18
    0.016800  1.163000e-18
    0.017000  1.196000e-18
    0.017200  1.251000e-18
    0.017500  1.372000e-18
    0.017700  1.383000e-18
    0.018000  1.416000e-18
    0.018200  1.438000e-18
    0.018500  1.547000e-18
    0.018800  1.613000e-18
    0.019100  1.635000e-18
    0.019400  1.745000e-18
    0.019700  1.855000e-18
    0.020000  1.910000e-18
    0.020300  2.008000e-18
    0.020700  2.030000e-18
    0.021000  2.162000e-18
    0.021400  2.305000e-18
    0.021800  2.393000e-18
    0.022100  2.480000e-18
    0.022500  2.656000e-18
    0.023000  2.875000e-18
    0.023400  2.985000e-18
    0.023800  3.161000e-18
    0.024300  3.314000e-18
    0.024800  3.490000e-18
    0.025300  3.808000e-18
    0.025800  3.907000e-18
    0.026400  4.149000e-18
    0.027000  4.357000e-18
    0.027600  4.664000e-18
    0.028200  4.895000e-18
    0.028800  5.202000e-18
    0.029500  5.685000e-18
    0.030200  6.025000e-18
    0.031000  6.409000e-18
    0.031400  6.640000e-18
    0.031800  6.980000e-18
    0.032200  6.947000e-18
    0.032600  7.408000e-18
    0.033100  7.661000e-18
    0.033500  7.913000e-18
    0.034000  8.132000e-18
    0.034400  8.440000e-18
    0.034900  8.879000e-18
    0.035400  9.065000e-18
    0.035900  9.537000e-18
    0.036500  1.005000e-17
    0.037000  1.028000e-17
    0.037600  1.073000e-17
    0.038100  1.090000e-17
    0.038700  1.140000e-17
    0.039400  1.223000e-17
    0.040000  1.325000e-17
    0.040700  1.364000e-17
    0.041300  1.429000e-17
    0.042000  1.493000e-17
    0.042800  1.541000e-17
    0.043500  1.590000e-17
    0.044300  1.688000e-17
    0.045100  1.770000e-17
    0.045900  1.855000e-17
    0.046800  1.921000e-17
    0.047700  2.026000e-17
    0.048600  2.166000e-17
    0.049600  2.209000e-17
    0.050600  2.310000e-17
    0.051700  2.408000e-17
    0.052054  2.442000e-17
    0.052078  2.447000e-17
    0.052104  2.444000e-17
    0.052129  2.447000e-17
    0.052155  2.454000e-17
    0.052179  2.456000e-17
    0.052206  2.465000e-17
    0.052229  2.460000e-17
    0.052255  2.465000e-17
    0.052279  2.468000e-17
    0.052305  2.472000e-17
    0.052329  2.473000e-17
    0.052355  2.474000e-17
    0.052379  2.480000e-17
    0.052406  2.483000e-17
    0.052430  2.485000e-17
    0.052456  2.485000e-17
    0.052480  2.489000e-17
    0.052507  2.491000e-17
    0.052530  2.495000e-17
    0.052556  2.496000e-17
    0.052580  2.499000e-17
    0.052606  2.503000e-17
    0.052630  2.506000e-17
    0.052656  2.507000e-17
    0.052680  2.510000e-17
    0.052706  2.512000e-17
    0.052730  2.517000e-17
    0.052757  2.518000e-17
    0.052781  2.521000e-17
    0.052807  2.523000e-17
    0.052831  2.525000e-17
    0.052857  2.528000e-17
    0.052882  2.531000e-17
    0.052907  2.532000e-17
    0.052931  2.535000e-17
    0.052957  2.540000e-17
    0.052982  2.541000e-17
    0.053007  2.545000e-17
    0.053032  2.547000e-17
    0.053057  2.549000e-17
    0.053083  2.551000e-17
    0.053108  2.554000e-17
    0.053133  2.557000e-17
    0.053157  2.561000e-17
    0.053183  2.564000e-17
    0.053207  2.564000e-17
    0.053233  2.567000e-17
    0.053257  2.572000e-17
    0.053283  2.574000e-17
    0.053307  2.576000e-17
    0.053333  2.578000e-17
    0.053357  2.581000e-17
    0.053383  2.584000e-17
    0.053407  2.587000e-17
    0.053434  2.589000e-17
    0.053458  2.592000e-17
    0.053484  2.596000e-17
    0.053508  2.597000e-17
    0.053534  2.598000e-17
    0.053558  2.605000e-17
    0.053584  2.604000e-17
    0.053608  2.605000e-17
    0.053634  2.611000e-17
    0.053658  2.612000e-17
    0.053684  2.615000e-17
    0.053708  2.617000e-17
    0.053733  2.621000e-17
    0.053758  2.624000e-17
    0.053784  2.626000e-17
    0.053808  2.628000e-17
    0.053834  2.630000e-17
    0.053859  2.632000e-17
    0.053885  2.634000e-17
    0.053909  2.638000e-17
    0.053934  2.641000e-17
    0.053959  2.645000e-17
    0.053985  2.647000e-17
    0.054009  2.650000e-17
    0.054034  2.654000e-17
    0.054059  2.657000e-17
    0.054084  2.660000e-17
    0.054109  2.662000e-17
    0.054134  2.664000e-17
    0.054159  2.666000e-17
    0.054184  2.668000e-17
    0.054209  2.672000e-17
    0.054234  2.673000e-17
    0.054259  2.676000e-17
    0.054285  2.679000e-17
    0.054310  2.684000e-17
    0.054335  2.686000e-17
    0.054359  2.688000e-17
    0.054385  2.689000e-17
    0.054410  2.692000e-17
    0.054435  2.694000e-17
    0.054459  2.696000e-17
    0.054486  2.698000e-17
    0.054510  2.701000e-17
    0.054535  2.704000e-17
    0.054559  2.708000e-17
    0.054585  2.711000e-17
    0.054610  2.716000e-17
    0.054635  2.721000e-17
    0.054659  2.723000e-17
    0.054685  2.726000e-17
    0.054711  2.727000e-17
    0.054736  2.730000e-17
    0.054760  2.731000e-17
    0.054786  2.733000e-17
    0.054811  2.736000e-17
    0.054836  2.739000e-17
    0.054861  2.742000e-17
    0.054886  2.746000e-17
    0.054911  2.748000e-17
    0.054936  2.750000e-17
    0.054960  2.753000e-17
    0.054986  2.754000e-17
    0.055011  2.755000e-17
    0.055036  2.757000e-17
    0.055061  2.757000e-17
    0.055086  2.759000e-17
    0.055111  2.764000e-17
    0.055136  2.768000e-17
    0.055161  2.773000e-17
    0.055185  2.779000e-17
    0.055211  2.785000e-17
    0.055236  2.788000e-17
    0.055262  2.792000e-17
    0.055286  2.794000e-17
    0.055312  2.798000e-17
    0.055336  2.798000e-17
    0.055362  2.798000e-17
    0.055386  2.798000e-17
    0.055412  2.801000e-17
    0.055436  2.802000e-17
    0.055462  2.806000e-17
    0.055486  2.808000e-17
    0.055512  2.814000e-17
    0.055536  2.818000e-17
    0.055562  2.819000e-17
    0.055586  2.821000e-17
    0.055613  2.821000e-17
    0.055636  2.822000e-17
    0.055662  2.822000e-17
    0.055686  2.821000e-17
    0.055712  2.823000e-17
    0.055736  2.826000e-17
    0.055762  2.831000e-17
    0.055786  2.838000e-17
    0.055813  2.848000e-17
    0.055837  2.857000e-17
    0.055863  2.863000e-17
    0.055888  2.868000e-17
    0.055914  2.870000e-17
    0.055938  2.870000e-17
    0.055963  2.870000e-17
    0.055987  2.870000e-17
    0.056013  2.870000e-17
    0.056038  2.870000e-17
    0.056063  2.869000e-17
    0.056088  2.871000e-17
    0.056114  2.874000e-17
    0.056138  2.877000e-17
    0.056163  2.884000e-17
    0.056188  2.888000e-17
    0.056214  2.889000e-17
    0.056238  2.892000e-17
    0.056263  2.892000e-17
    0.056288  2.891000e-17
    0.056313  2.890000e-17
    0.056338  2.890000e-17
    0.056363  2.890000e-17
    0.056388  2.895000e-17
    0.056413  2.900000e-17
    0.056438  2.908000e-17
    0.056463  2.920000e-17
    0.056488  2.929000e-17
    0.056514  2.937000e-17
    0.056538  2.943000e-17
    0.056564  2.944000e-17
    0.056589  2.943000e-17
    0.056614  2.942000e-17
    0.056639  2.942000e-17
    0.056664  2.940000e-17
    0.056689  2.941000e-17
    0.056715  2.941000e-17
    0.056739  2.943000e-17
    0.056764  2.945000e-17
    0.056789  2.948000e-17
    0.056815  2.951000e-17
    0.056839  2.955000e-17
    0.056864  2.957000e-17
    0.056889  2.959000e-17
    0.056915  2.960000e-17
    0.056939  2.963000e-17
    0.056964  2.963000e-17
    0.056989  2.965000e-17
    0.057015  2.966000e-17
    0.057039  2.969000e-17
    0.057065  2.974000e-17
    0.057089  2.980000e-17
    0.057115  2.989000e-17
    0.057139  2.998000e-17
    0.057165  3.006000e-17
    0.057189  3.010000e-17
    0.057215  3.013000e-17
    0.057239  3.012000e-17
    0.057265  3.011000e-17
    0.057289  3.011000e-17
    0.057315  3.009000e-17
    0.057339  3.008000e-17
    0.057365  3.009000e-17
    0.057389  3.011000e-17
    0.057416  3.012000e-17
    0.057439  3.014000e-17
    0.057465  3.017000e-17
    0.057489  3.020000e-17
    0.057516  3.023000e-17
    0.057540  3.026000e-17
    0.057566  3.028000e-17
    0.057590  3.030000e-17
    0.057616  3.033000e-17
    0.057640  3.031000e-17
    0.057666  3.034000e-17
    0.057690  3.036000e-17
    0.057717  3.042000e-17
    0.057740  3.048000e-17
    0.057766  3.057000e-17
    0.057790  3.065000e-17
    0.057817  3.073000e-17
    0.057840  3.077000e-17
    0.057866  3.080000e-17
    0.057890  3.081000e-17
    0.057916  3.082000e-17
    0.057940  3.082000e-17
    0.057966  3.081000e-17
    0.057990  3.081000e-17
    0.058017  3.079000e-17
    0.058040  3.080000e-17
    0.058066  3.080000e-17
    0.058090  3.080000e-17
    0.058116  3.081000e-17
    0.058141  3.082000e-17
    0.058165  3.084000e-17
    0.058191  3.085000e-17
    0.058216  3.089000e-17
    0.058241  3.091000e-17
    0.058265  3.093000e-17
    0.058290  3.097000e-17
    0.058316  3.097000e-17
    0.058341  3.098000e-17
    0.058365  3.099000e-17
    0.058391  3.099000e-17
    0.058416  3.101000e-17
    0.058440  3.106000e-17
    0.058465  3.114000e-17
    0.058491  3.125000e-17
    0.058515  3.134000e-17
    0.058541  3.143000e-17
    0.058565  3.147000e-17
    0.058591  3.148000e-17
    0.058615  3.148000e-17
    0.058640  3.146000e-17
    0.058665  3.147000e-17
    0.058691  3.146000e-17
    0.058715  3.146000e-17
    0.058741  3.145000e-17
    0.058765  3.145000e-17
    0.058791  3.146000e-17
    0.058815  3.146000e-17
    0.058841  3.146000e-17
    0.058865  3.147000e-17
    0.058891  3.147000e-17
    0.058915  3.149000e-17
    0.058941  3.151000e-17
    0.058965  3.153000e-17
    0.058991  3.155000e-17
    0.059015  3.158000e-17
    0.059041  3.160000e-17
    0.059064  3.162000e-17
    0.059091  3.166000e-17
    0.059115  3.169000e-17
    0.059140  3.173000e-17
    0.059164  3.176000e-17
    0.059191  3.178000e-17
    0.059215  3.179000e-17
    0.059240  3.183000e-17
    0.059264  3.184000e-17
    0.059291  3.187000e-17
    0.059314  3.188000e-17
    0.059340  3.190000e-17
    0.059364  3.189000e-17
    0.059390  3.193000e-17
    0.059415  3.192000e-17
    0.059440  3.192000e-17
    0.059464  3.192000e-17
    0.059490  3.194000e-17
    0.059514  3.194000e-17
    0.059540  3.194000e-17
    0.059564  3.195000e-17
    0.059591  3.196000e-17
    0.059615  3.198000e-17
    0.059641  3.200000e-17
    0.059665  3.203000e-17
    0.059691  3.206000e-17
    0.059716  3.210000e-17
    0.059741  3.212000e-17
    0.059765  3.216000e-17
    0.059791  3.221000e-17
    0.059816  3.225000e-17
    0.059840  3.231000e-17
    0.059866  3.233000e-17
    0.059890  3.239000e-17
    0.059916  3.242000e-17
    0.059941  3.245000e-17
    0.059966  3.249000e-17
    0.059990  3.252000e-17
    0.060016  3.255000e-17
    0.060040  3.256000e-17
    0.060066  3.258000e-17
    0.060090  3.259000e-17
    0.060116  3.261000e-17
    0.060140  3.261000e-17
    0.060165  3.261000e-17
    0.060190  3.261000e-17
    0.060216  3.261000e-17
    0.060240  3.263000e-17
    0.060266  3.262000e-17
    0.060290  3.263000e-17
    0.060316  3.267000e-17
    0.060340  3.266000e-17
    0.060366  3.271000e-17
    0.060390  3.272000e-17
    0.060416  3.276000e-17
    0.060440  3.279000e-17
    0.060466  3.282000e-17
    0.060490  3.287000e-17
    0.060516  3.292000e-17
    0.060540  3.297000e-17
    0.060566  3.302000e-17
    0.060590  3.309000e-17
    0.060616  3.315000e-17
    0.060640  3.321000e-17
    0.060665  3.328000e-17
    0.060689  3.332000e-17
    0.060715  3.340000e-17
    0.060739  3.344000e-17
    0.060764  3.347000e-17
    0.060789  3.350000e-17
    0.060815  3.353000e-17
    0.060839  3.356000e-17
    0.060865  3.357000e-17
    0.060889  3.357000e-17
    0.060915  3.357000e-17
    0.060940  3.357000e-17
    0.060964  3.357000e-17
    0.060989  3.360000e-17
    0.061015  3.360000e-17
    0.061040  3.362000e-17
    0.061064  3.363000e-17
    0.061090  3.365000e-17
    0.061115  3.368000e-17
    0.061140  3.369000e-17
    0.061165  3.372000e-17
    0.061190  3.375000e-17
    0.061215  3.379000e-17
    0.061240  3.382000e-17
    0.061265  3.386000e-17
    0.061290  3.388000e-17
    0.061315  3.396000e-17
    0.061340  3.401000e-17
    0.061365  3.407000e-17
    0.061390  3.413000e-17
    0.061415  3.421000e-17
    0.061440  3.429000e-17
    0.061465  3.435000e-17
    0.061490  3.446000e-17
    0.061515  3.452000e-17
    0.061540  3.461000e-17
    0.061565  3.467000e-17
    0.061590  3.472000e-17
    0.061615  3.474000e-17
    0.061640  3.479000e-17
    0.061665  3.479000e-17
    0.061690  3.480000e-17
    0.061715  3.481000e-17
    0.061740  3.481000e-17
    0.061765  3.480000e-17
    0.061791  3.481000e-17
    0.061815  3.481000e-17
    0.061840  3.482000e-17
    0.061865  3.483000e-17
    0.061891  3.485000e-17
    0.061915  3.486000e-17
    0.061940  3.487000e-17
    0.061965  3.488000e-17
    0.061991  3.489000e-17
    0.062016  3.492000e-17
    0.062040  3.494000e-17
    0.062065  3.496000e-17
    0.062091  3.497000e-17
    0.062116  3.500000e-17
    0.062140  3.502000e-17
    0.062165  3.506000e-17
    0.062191  3.510000e-17
    0.062216  3.515000e-17
    0.062240  3.521000e-17
    0.062265  3.528000e-17
    0.062290  3.534000e-17
    0.062316  3.542000e-17
    0.062340  3.549000e-17
    0.062366  3.557000e-17
    0.062390  3.563000e-17
    0.062416  3.567000e-17
    0.062440  3.571000e-17
    0.062466  3.575000e-17
    0.062490  3.577000e-17
    0.062516  3.578000e-17
    0.062540  3.579000e-17
    0.062566  3.579000e-17
    0.062591  3.579000e-17
    0.062616  3.578000e-17
    0.062640  3.580000e-17
    0.062666  3.580000e-17
    0.062690  3.579000e-17
    0.062716  3.579000e-17
    0.062740  3.579000e-17
    0.062766  3.580000e-17
    0.062790  3.579000e-17
    0.062816  3.581000e-17
    0.062840  3.580000e-17
    0.062866  3.581000e-17
    0.062890  3.582000e-17
    0.062916  3.582000e-17
    0.062940  3.585000e-17
    0.062965  3.583000e-17
    0.062989  3.585000e-17
    0.063015  3.587000e-17
    0.063039  3.588000e-17
    0.063065  3.590000e-17
    0.063089  3.591000e-17
    0.063115  3.593000e-17
    0.063139  3.594000e-17
    0.063165  3.594000e-17
    0.063189  3.596000e-17
    0.063215  3.598000e-17
    0.063239  3.599000e-17
    0.063264  3.603000e-17
    0.063289  3.601000e-17
    0.063315  3.605000e-17
    0.063339  3.605000e-17
    0.063364  3.607000e-17
    0.063389  3.609000e-17
    0.063415  3.611000e-17
    0.063439  3.612000e-17
    0.063464  3.613000e-17
    0.063489  3.615000e-17
    0.063515  3.618000e-17
    0.063539  3.619000e-17
    0.063564  3.621000e-17
    0.063589  3.623000e-17
    0.063614  3.625000e-17
    0.063639  3.628000e-17
    0.063664  3.629000e-17
    0.063689  3.631000e-17
    0.063714  3.632000e-17
    0.063740  3.634000e-17
    0.063764  3.636000e-17
    0.063790  3.639000e-17
    0.063814  3.640000e-17
    0.063839  3.641000e-17
    0.063864  3.643000e-17
    0.063889  3.646000e-17
    0.063914  3.649000e-17
    0.063939  3.651000e-17
    0.063964  3.651000e-17
    0.063989  3.655000e-17
    0.064014  3.657000e-17
    0.064039  3.658000e-17
    0.064064  3.660000e-17
    0.064089  3.663000e-17
    0.064114  3.663000e-17
    0.064139  3.665000e-17
    0.064164  3.667000e-17
    0.064188  3.671000e-17
    0.064213  3.673000e-17
    0.064238  3.673000e-17
    0.064263  3.675000e-17
    0.064288  3.677000e-17
    0.064313  3.680000e-17
    0.064338  3.682000e-17
    0.064363  3.683000e-17
    0.064388  3.686000e-17
    0.064413  3.688000e-17
    0.064438  3.689000e-17
    0.064462  3.691000e-17
    0.064488  3.693000e-17
    0.064513  3.697000e-17
    0.064537  3.698000e-17
    0.064562  3.700000e-17
    0.064587  3.702000e-17
    0.064613  3.703000e-17
    0.064637  3.707000e-17
    0.064663  3.709000e-17
    0.064687  3.711000e-17
    0.064713  3.712000e-17
    0.064737  3.715000e-17
    0.064762  3.717000e-17
    0.064787  3.719000e-17
    0.064813  3.720000e-17
    0.064837  3.723000e-17
    0.064863  3.723000e-17
    0.064887  3.726000e-17
    0.064913  3.728000e-17
    0.064937  3.730000e-17
    0.064963  3.732000e-17
    0.064987  3.735000e-17
    0.065013  3.736000e-17
    0.065037  3.738000e-17
    0.065062  3.741000e-17
    0.065087  3.743000e-17
    0.065113  3.746000e-17
    0.065136  3.749000e-17
    0.065162  3.750000e-17
    0.065185  3.751000e-17
    0.065212  3.753000e-17
    0.065236  3.755000e-17
    0.065262  3.757000e-17
    0.065286  3.759000e-17
    0.065312  3.761000e-17
    0.065336  3.763000e-17
    0.065361  3.766000e-17
    0.065386  3.767000e-17
    0.065412  3.770000e-17
    0.065436  3.772000e-17
    0.065461  3.773000e-17
    0.065486  3.776000e-17
    0.065512  3.776000e-17
    0.065536  3.780000e-17
    0.065561  3.782000e-17
    0.065586  3.784000e-17
    0.065612  3.785000e-17
    0.065636  3.787000e-17
    0.065661  3.790000e-17
    0.065686  3.792000e-17
    0.065711  3.795000e-17
    0.065737  3.794000e-17
    0.065761  3.797000e-17
    0.065787  3.800000e-17
    0.065811  3.802000e-17
    0.065836  3.805000e-17
    0.065861  3.807000e-17
    0.065887  3.809000e-17
    0.065912  3.809000e-17
    0.065937  3.812000e-17
    0.065961  3.813000e-17
    0.065987  3.815000e-17
    0.066011  3.818000e-17
    0.066036  3.818000e-17
    0.066060  3.821000e-17
    0.066086  3.824000e-17
    0.066110  3.824000e-17
    0.066136  3.826000e-17
    0.066160  3.829000e-17
    0.066186  3.832000e-17
    0.066210  3.834000e-17
    0.066236  3.835000e-17
    0.066260  3.838000e-17
    0.066286  3.839000e-17
    0.066310  3.844000e-17
    0.066336  3.845000e-17
    0.066360  3.845000e-17
    0.066386  3.849000e-17
    0.066411  3.852000e-17
    0.066436  3.852000e-17
    0.066460  3.854000e-17
    0.066486  3.857000e-17
    0.066511  3.859000e-17
    0.066536  3.861000e-17
    0.066560  3.861000e-17
    0.066586  3.863000e-17
    0.066611  3.866000e-17
    0.066636  3.868000e-17
    0.066660  3.870000e-17
    0.066687  3.871000e-17
    0.066711  3.872000e-17
    0.066736  3.876000e-17
    0.066760  3.878000e-17
    0.066786  3.882000e-17
    0.066810  3.882000e-17
    0.066835  3.883000e-17
    0.066860  3.886000e-17
    0.066885  3.890000e-17
    0.066910  3.891000e-17
